                              File name:	C:\Users\BTSUser\Desktop\Biomedica\Esb Asdhar Alonso OC.tdf plat 1	
                          Frequency(Hz):	10.000000	
                          Total time(s):	44.958000	
                     Real total time(s):	45.000000	
                   Start of analysis(s):	0.000000	
              Range time of analysis(s):	45.000000	
                        Reference frame:	1	
  Trasversal COP displacement(mm)[m,sd]:	-21.952086	1.981148	
Longitudinal COP displacement(mm)[m,sd]:	27.152283	2.462187	
                       Radius(mm)[m,sd]:	2.885928	1.280698	
                         Max radius(mm):	7.460069	
                         Min radius(mm):	0.006638	
                   Trasversal range(mm):	8.831070	
                 Longitudinal range(mm):	13.926941	
                       Trace length(mm):	452.141358	
                            LFS (1/cm): 	17.280389	
                   Equivalent area(mmq):	396.354526	
                  Equivalent radius(mm):	11.232256	
                      Speed(mm/s)[m,sd]:	10.069963	6.162720	
       Inertial axises(mm)[asseX,asseY]:	1.991325	2.453964	
                    Regression angle:(°)	-3.647739	
                   Geographic area(mmq):	15.351831	
                     Tile dimension(mm):	5.000000	5.000000	
                        Setctors number:	6	
                    Sector amplitude(°):	60.000000	
                       Number of points:	6	
                   Fixed mean area(mmq):	21.537446	
                    Fixed sum area(mmq):	120563.053799	
                Variable mean area(mmq):	19.236163	
                 Variable sum area(mmq):	107446.306257	
                Sway density radius (mm)	2.500000	
                            Peak number 	65	
              Filter, cut-off frequency:	1.000000	
              Peak amplitude (s) [m,sd]:	1.368280	0.627616	
                   Peak time (s) [m,sd]:	0.701562	0.485828	
              Peak distance (mm) [m,sd]:	1.676658	1.182171	
Px spectrum, maximum peak and frequency (Hz):	132.507660	0.019531	
Py spectrum, maximum peak and frequency (Hz):	61.709190	0.019531	
D spectrum, maximum peak and frequency (Hz):	4.122448	0.058594	
               Px spectrum, mean values:	0.783261	0.220591	
               Py spectrum, mean values:	1.209923	0.411937	
                D spectrum, mean values:	0.327333	0.835513	

      Px	      Py	
-21.982819	29.504150	
-22.430099	31.095367	
-22.587631	30.804169	
-22.348450	30.179932	
-22.026917	27.657837	
-21.106659	32.796417	
-21.191528	33.747803	
-20.178619	32.864197	
-20.428574	31.566895	
-20.229843	31.033844	
-19.721451	31.600037	
-19.584656	30.261566	
-20.632858	31.204865	
-21.510391	30.566620	
-21.913910	30.945923	
-21.793762	28.749115	
-21.393097	27.141663	
-20.634659	27.595917	
-20.313828	27.966522	
-19.916916	27.970886	
-19.709900	30.049561	
-19.705322	32.969055	
-19.877670	32.801666	
-20.868164	32.992340	
-20.508728	31.419678	
-20.186707	29.419159	
-19.506378	29.205811	
-18.435974	28.465790	
-18.348007	29.725067	
-19.232254	31.767944	
-20.308182	31.226898	
-20.627777	30.950073	
-21.029800	31.080566	
-20.754395	28.399231	
-20.186966	25.274689	
-19.995438	23.991058	
-19.633942	24.442932	
-20.200424	27.077362	
-20.598557	28.597961	
-20.875763	28.064758	
-21.067520	29.095612	
-20.954941	29.281158	
-20.547836	31.397308	
-20.188980	30.992981	
-19.909988	31.125427	
-19.270584	31.919464	
-19.197067	32.115753	
-18.120178	30.904602	
-18.081528	29.970856	
-18.113159	28.157074	
-17.790497	28.641724	
-18.151810	29.173615	
-18.352386	28.526184	
-18.517944	27.484528	
-18.664734	28.818512	
-19.277679	28.761993	
-19.557526	29.212341	
-19.806824	28.807556	
-19.553650	26.870575	
-19.552597	28.757629	
-19.557083	30.092987	
-20.308655	30.282135	
-21.156006	30.930695	
-21.874191	31.377014	
-21.796692	30.099335	
-21.869965	29.278900	
-22.156082	30.198700	
-22.354141	28.746979	
-21.400696	28.557404	
-21.320358	28.343842	
-19.926727	27.999359	
-19.164536	27.075439	
-18.598267	26.762268	
-18.232819	26.440887	
-17.197266	26.316101	
-17.725693	25.809692	
-18.198730	24.306885	
-18.772903	24.123505	
-19.011475	24.694794	
-19.206894	24.411041	
-19.841873	26.717133	
-20.402222	28.208862	
-20.878571	28.500183	
-20.878998	27.598114	
-20.438446	26.935120	
-19.956879	26.556824	
-19.833496	27.361603	
-19.079712	29.112244	
-18.277313	29.862946	
-18.163391	30.880859	
-18.243103	30.001556	
-18.519791	27.370300	
-18.312775	26.719299	
-18.593918	28.013702	
-19.143509	28.875366	
-20.281342	29.755615	
-20.955719	29.596283	
-21.793732	27.195465	
-21.083450	25.837219	
-21.119217	25.586700	
-21.360535	25.208282	
-21.717896	25.884369	
-22.075638	26.806519	
-21.956894	27.156860	
-21.916779	28.455170	
-21.195343	28.161682	
-20.677231	27.614044	
-19.435257	28.386993	
-19.135208	27.865356	
-19.398453	27.152527	
-19.521027	26.266541	
-19.374847	25.657898	
-19.245911	26.270935	
-19.010895	25.514252	
-18.914169	26.757904	
-19.365616	27.352600	
-19.326889	28.140320	
-19.927902	28.075592	
-20.402054	27.700012	
-20.482559	26.741241	
-20.484085	27.348267	
-20.280121	26.674164	
-20.443375	27.266876	
-20.358810	26.008759	
-20.636887	26.792175	
-21.354172	27.615662	
-21.638199	25.258667	
-21.237701	24.719971	
-21.201553	25.952637	
-20.995987	24.649506	
-20.691498	25.986755	
-20.318604	25.144806	
-19.730667	24.822174	
-19.649368	24.914978	
-19.440765	24.406647	
-19.802094	24.910583	
-20.156509	25.158783	
-20.440338	26.090271	
-20.646805	27.187714	
-20.596542	25.847961	
-20.203430	25.267487	
-19.761032	24.897034	
-19.478424	24.794006	
-19.957870	24.667114	
-19.639389	23.995483	
-19.565659	24.157501	
-20.123901	23.514069	
-20.208771	23.087921	
-20.249908	22.106812	
-20.803940	21.865753	
-21.114685	23.986572	
-21.842606	25.008728	
-22.234100	24.593445	
-23.078506	24.883698	
-22.636047	23.933807	
-21.761597	24.148529	
-21.122879	22.999939	
-20.042328	23.636444	
-19.566177	23.338196	
-19.803635	22.201660	
-20.239120	23.391907	
-20.762314	23.710815	
-21.197021	24.597900	
-21.836060	25.097412	
-21.764053	25.395203	
-21.204681	25.187744	
-20.763092	25.387451	
-20.523895	25.120148	
-19.565063	25.031372	
-18.736526	25.518646	
-18.370438	25.516449	
-17.636993	26.742523	
-18.216904	27.282074	
-19.642761	27.073273	
-21.154648	28.120972	
-21.558014	26.435638	
-21.122543	26.390442	
-20.284393	26.209991	
-18.499847	24.974304	
-18.920776	24.380798	
-19.802597	24.007477	
-20.960632	24.242371	
-22.483444	24.878998	
-24.107559	25.122681	
-23.953537	25.819641	
-23.555878	25.449310	
-22.111160	27.902924	
-21.115128	28.474731	
-20.675873	30.406799	
-20.594711	29.380554	
-20.478775	30.523010	
-20.676331	29.380554	
-20.084778	28.465912	
-20.324173	28.095276	
-20.434448	27.400208	
-21.118378	27.146027	
-21.243347	27.163391	
-21.117935	28.048065	
-20.558609	27.148193	
-20.400864	28.108521	
-20.640518	26.205597	
-21.033798	25.192963	
-20.957886	25.090149	
-20.876938	24.189301	
-21.277985	25.539551	
-21.080948	25.781494	
-21.003525	25.421844	
-20.802612	24.694672	
-21.039627	23.758728	
-21.199738	24.610931	
-21.881805	25.592712	
-22.401352	25.019653	
-21.720520	25.008728	
-21.476761	24.910858	
-20.408569	25.999908	
-20.288193	25.273682	
-19.451141	24.576111	
-18.601959	23.772247	
-17.417694	21.999847	
-17.128876	22.047058	
-18.197281	20.939606	
-20.689865	23.104401	
-20.571976	24.462250	
-20.808884	21.437378	
-20.572632	19.820862	
-21.597870	20.425537	
-23.354065	22.133759	
-23.561508	22.436340	
-23.633789	22.542633	
-23.195541	23.279480	
-21.686127	24.269684	
-22.039963	23.462036	
-22.233688	24.965210	
-23.037231	25.573608	
-24.945892	26.140717	
-25.959946	27.683594	
-25.311737	27.096436	
-24.233154	27.130798	
-22.594360	26.301331	
-21.433838	27.182404	
-21.474960	26.158264	
-21.481125	23.907288	
-22.075760	23.170380	
-23.110443	22.547821	
-23.957230	24.767334	
-23.509888	25.896606	
-22.553452	27.137329	
-22.466995	26.683044	
-22.273361	27.467224	
-22.228348	25.290619	
-22.351212	24.748291	
-23.464172	25.483429	
-24.825699	25.570679	
-24.832611	26.317413	
-25.592285	26.888367	
-24.271515	27.100800	
-23.950623	25.868988	
-23.676468	25.138855	
-23.148956	25.528534	
-23.471680	24.967804	
-23.552551	24.676910	
-24.071838	25.536530	
-23.822525	24.322937	
-23.232071	23.365173	
-22.829971	23.122833	
-22.315491	23.900635	
-22.315826	23.161957	
-22.473145	23.697479	
-22.437729	23.331116	
-22.875854	23.870026	
-23.311508	24.337677	
-23.311798	23.518890	
-23.753067	24.644836	
-23.994034	26.558655	
-23.230759	25.781097	
-22.589249	26.851135	
-22.075287	27.748474	
-21.760056	27.752808	
-21.871063	28.041565	
-22.114899	28.296600	
-21.998245	28.495911	
-22.074554	29.469971	
-21.911804	28.082275	
-22.190506	28.391052	
-22.074127	28.255798	
-22.710403	29.564178	
-22.827347	28.176880	
-23.188080	28.839996	
-23.549789	28.682007	
-22.710480	28.335022	
-22.069946	28.155182	
-22.353851	27.782684	
-22.472916	26.088654	
-22.986725	24.836365	
-23.267242	24.756287	
-23.622696	25.363251	
-24.107559	24.918854	
-23.748413	26.290344	
-23.548126	27.355408	
-23.376938	27.651886	
-23.311920	28.699768	
-22.669617	29.564178	
-22.949524	29.676636	
-23.143784	28.285736	
-23.306870	28.244965	
-23.067856	28.090393	
-23.101456	28.131897	
-23.785751	28.202057	
-23.944366	29.809998	
-23.986938	29.622131	
-24.463379	30.224487	
-24.429001	29.440826	
-24.033768	29.090027	
-23.386154	29.409149	
-23.229218	29.052399	
-22.430496	27.815216	
-22.110992	27.253876	
-22.431366	26.405029	
-22.589050	26.896088	
-23.185135	26.439240	
-23.950623	25.828186	
-24.505981	27.218842	
-25.181961	27.412750	
-25.704269	27.499847	
-25.786118	25.776367	
-25.816238	26.581909	
-25.829514	26.932037	
-25.701813	26.426117	
-25.908432	26.679932	
-25.414352	26.982819	
-24.906693	28.116211	
-24.102600	29.693726	
-24.022614	29.086639	
-23.346832	28.935150	
-22.828079	28.665771	
-22.588318	29.054535	
-22.705383	28.896545	
-22.949677	30.055450	
-23.421844	30.851410	
-24.064636	29.678650	
-24.227432	29.423889	
-24.187149	27.578613	
-23.748016	29.009583	
-23.782761	28.424927	
-24.191956	28.813019	
-24.433441	28.388611	
-24.098099	27.861633	
-23.107315	25.804535	
-23.237854	26.339996	
-22.670914	26.074921	
-23.668457	26.021118	
-24.150787	25.544586	
-23.998657	26.789246	
-23.946716	27.696960	
-23.791656	30.017639	
-23.513840	29.956177	
-23.310532	31.194550	
-23.513306	31.678345	
-23.188995	30.506042	
-23.193222	30.326660	
-23.506256	30.661346	
-23.230362	28.781281	
-22.904037	27.077209	
-23.229492	28.273010	
-23.148483	28.525818	
-23.385284	29.893494	
-23.666321	30.033325	
-24.031036	30.265289	
-24.626144	29.553528	
-25.709244	28.899689	
-25.949005	28.528290	
-25.301743	28.924469	
-24.921661	28.156403	
-24.509521	28.917114	
-23.836609	29.111664	
-23.393997	28.833160	
-23.509079	28.600586	
-23.113998	27.560242	
-22.873520	28.195953	
-22.558563	27.653290	
-22.558929	26.438416	
-22.921082	24.685730	
-23.442719	24.450623	
-23.673477	26.312439	
-24.240814	28.011047	
-24.442719	30.508392	
-24.651810	30.292480	
-24.073166	30.855865	
-24.392548	29.167419	
-24.436386	28.815216	
-24.398010	28.063568	
-24.166199	26.129089	
-24.405151	25.984558	
-23.925446	25.386322	
-23.404282	24.926575	
-23.007614	25.140289	
-22.599945	25.537323	
-22.640793	25.138123	
-22.960846	26.190216	
-23.520203	25.943878	
-23.680420	26.287598	
-24.152130	25.367584	
-24.473099	23.810150	
-24.429443	23.433044	
-24.318680	22.054260	
-24.118347	23.202026	
-24.155273	23.202057	
-24.308624	24.541656	
-24.547302	26.014313	
-24.426697	26.224396	
-24.591232	26.477844	
-24.518066	28.075928	
-24.276123	29.363556	
-23.984070	29.718719	
-23.911591	30.249176	
-23.707031	29.911194	
-23.304108	27.920654	
-22.950287	28.453186	
-22.664276	30.094025	
-23.020126	29.325592	
-23.460861	28.790558	
-23.661865	30.654205	
-24.020477	31.285309	
-24.101135	29.922394	
-24.137787	31.123352	
-24.212814	30.415222	
-24.103516	30.557068	
-24.105957	31.362244	
-24.507339	29.792572	
-24.027573	28.298584	
-23.898224	29.478729	
-23.827942	30.520538	
-23.694290	32.096069	
-23.703430	30.870789	
-24.389648	29.572784	
-24.426285	28.028625	
-24.702957	26.908020	
-24.758026	26.242828	
-24.060562	25.669952	
-24.023804	24.620850	
-23.701630	24.571625	
-23.668701	24.793427	
-24.031067	25.577301	
-24.072083	24.674683	
-23.743988	25.235291	
-24.032227	25.787354	
-23.944855	26.413605	
-23.866806	26.226593	
-24.231155	25.334534	
-24.111160	26.188049	
