                              File name:	C:\Users\BTSUser\Desktop\Biomedica\Esb Asdhar Alonso OA+MUSICA.tdf plat 1	
                          Frequency(Hz):	10.000000	
                          Total time(s):	41.521000	
                     Real total time(s):	41.500000	
                   Start of analysis(s):	0.000000	
              Range time of analysis(s):	41.500000	
                        Reference frame:	1	
  Trasversal COP displacement(mm)[m,sd]:	-48.080271	1.583226	
Longitudinal COP displacement(mm)[m,sd]:	47.787539	6.710940	
                       Radius(mm)[m,sd]:	5.698986	3.871230	
                         Max radius(mm):	17.008843	
                         Min radius(mm):	0.190138	
                   Trasversal range(mm):	8.424667	
                 Longitudinal range(mm):	32.597443	
                       Trace length(mm):	464.520858	
                            LFS (1/cm): 	4.552607	
                   Equivalent area(mmq):	594.844987	
                  Equivalent radius(mm):	13.760270	
                      Speed(mm/s)[m,sd]:	11.220311	8.633383	
       Inertial axises(mm)[asseX,asseY]:	6.233042	2.948306	
                    Regression angle:(°)	-60.965172	
                   Geographic area(mmq):	57.732785	
                     Tile dimension(mm):	5.000000	5.000000	
                        Setctors number:	6	
                    Sector amplitude(°):	60.000000	
                       Number of points:	6	
                   Fixed mean area(mmq):	38.006139	
                    Fixed sum area(mmq):	128125.665844	
                Variable mean area(mmq):	30.782939	
                 Variable sum area(mmq):	95790.345479	
                Sway density radius (mm)	2.500000	
                            Peak number 	49	
              Filter, cut-off frequency:	1.000000	
              Peak amplitude (s) [m,sd]:	1.367676	0.675333	
                   Peak time (s) [m,sd]:	0.862500	0.493630	
              Peak distance (mm) [m,sd]:	2.977838	3.459908	
Px spectrum, maximum peak and frequency (Hz):	27.280500	0.019531	
Py spectrum, maximum peak and frequency (Hz):	618.338623	0.019531	
D spectrum, maximum peak and frequency (Hz):	282.995728	0.019531	
               Px spectrum, mean values:	0.500123	0.348510	
               Py spectrum, mean values:	8.985678	0.145355	
                D spectrum, mean values:	2.990161	0.244759	

      Px	      Py	
-49.258240	57.116058	
-49.825851	56.748260	
-49.955109	57.326721	
-49.961411	57.021423	
-49.909286	57.794373	
-49.484909	59.123596	
-49.814880	60.745056	
-49.439056	59.894745	
-49.445267	58.682098	
-49.051315	57.358978	
-49.167603	56.945251	
-49.012665	56.188354	
-48.619354	57.936768	
-48.057327	58.001587	
-47.974045	58.386292	
-48.375198	57.812347	
-48.696365	58.262939	
-48.135757	59.191772	
-48.216492	60.561188	
-48.197830	60.801025	
-48.821594	62.015045	
-49.462692	61.622620	
-49.121262	59.019501	
-48.668259	57.652771	
-48.752640	57.348572	
-48.175186	58.450531	
-47.675766	59.035889	
-47.806381	60.094116	
-48.318634	59.897400	
-48.419891	60.683228	
-48.711655	60.426239	
-48.805527	59.691498	
-48.554367	60.919434	
-48.696121	62.434570	
-48.782135	62.921326	
-48.848389	63.679169	
-49.145813	63.879486	
-49.587631	63.418945	
-49.384857	64.746277	
-49.956573	64.481689	
-49.908554	63.796936	
-49.899963	62.666687	
-49.744034	62.903870	
-48.930283	61.497375	
-48.418549	59.536346	
-48.491684	59.466583	
-49.443359	59.486755	
-49.212448	59.693939	
-49.623901	59.354523	
-49.428604	58.640930	
-48.542053	56.256592	
-47.704910	56.302673	
-47.538269	56.175323	
-46.902985	55.770508	
-46.688187	55.579132	
-46.400681	54.321320	
-46.054367	52.310699	
-46.489487	51.639618	
-46.448776	51.639618	
-46.851517	51.420227	
-47.208221	52.045837	
-47.274689	51.995056	
-47.134079	53.132874	
-47.245926	53.400177	
-47.327362	53.440887	
-46.806381	52.184753	
-47.106918	52.756744	
-46.949768	52.815277	
-46.313156	53.190491	
-45.615829	53.492371	
-45.457291	52.959991	
-45.450653	51.563629	
-46.809723	51.227966	
-47.103165	50.049438	
-47.569275	51.636536	
-47.672424	53.128357	
-47.256439	53.092072	
-46.770233	52.009003	
-46.410080	49.344391	
-45.815506	49.337982	
-45.312378	49.674286	
-45.838150	48.801208	
-45.721985	47.149139	
-46.122833	40.641815	
-47.696381	34.507111	
-45.900650	38.562531	
-46.833542	35.318176	
-47.734375	33.357513	
-48.931793	32.157623	
-47.213043	32.148834	
-46.761887	35.937836	
-46.381363	33.771759	
-47.111588	36.080719	
-45.951248	34.679504	
-45.392181	34.122833	
-45.248444	36.459595	
-45.689041	38.729156	
-45.895798	41.725861	
-47.079025	43.802582	
-47.485443	43.845520	
-47.722366	42.493713	
-48.571457	39.649506	
-48.822540	39.644440	
-49.032486	38.518921	
-48.911850	39.376190	
-47.762848	41.908203	
-46.943100	43.866089	
-46.803543	46.754272	
-46.838516	45.853790	
-46.746109	45.630585	
-46.200439	44.788239	
-46.878769	42.202118	
-46.784927	40.293823	
-46.765320	41.015320	
-47.543991	43.041443	
-48.213425	43.773590	
-49.137711	42.710022	
-49.389847	42.168274	
-48.392715	43.506134	
-47.634766	44.041260	
-46.937439	43.369843	
-47.932587	44.632202	
-48.574997	45.288849	
-49.011475	44.066040	
-49.146332	43.500336	
-49.088409	43.727142	
-48.682953	43.564026	
-48.127747	44.221161	
-49.101944	43.908905	
-49.049103	44.710083	
-48.624008	44.771027	
-49.073242	45.757263	
-48.866440	46.121490	
-48.486496	45.898529	
-47.722809	46.060699	
-47.607681	44.467499	
-47.454849	43.325439	
-47.831436	42.646423	
-48.167084	43.238342	
-48.641388	41.943146	
-47.718048	40.554535	
-47.238663	38.817871	
-47.073257	38.831421	
-45.496201	38.788910	
-44.718246	36.949066	
-45.125748	36.316315	
-45.762634	38.268768	
-46.722397	39.625061	
-47.789536	41.139435	
-48.097046	40.938843	
-48.417816	40.241119	
-48.379257	37.012146	
-48.059113	37.545624	
-46.782455	38.445160	
-46.797958	38.713348	
-47.514023	38.971375	
-48.085663	39.195770	
-48.221207	38.867310	
-48.855087	38.360443	
-48.319061	38.677185	
-48.675308	38.591675	
-48.079193	38.023956	
-48.299835	36.984558	
-47.988098	36.226166	
-47.852448	37.023376	
-47.183136	37.510986	
-47.190048	38.867584	
-47.681671	39.943054	
-47.280289	41.589752	
-45.991562	43.504242	
-46.007492	42.250916	
-46.586456	40.552765	
-46.487549	39.131500	
-47.774887	38.372589	
-48.472992	37.693390	
-48.567398	37.017242	
-48.758301	36.422577	
-47.513992	35.437622	
-47.535049	36.465637	
-48.676956	36.341217	
-48.384949	37.466461	
-47.965775	39.123627	
-47.240860	42.695221	
-47.128799	44.019440	
-47.944656	44.805695	
-48.348999	44.856445	
-48.534515	44.182831	
-48.434647	42.274078	
-48.224152	43.382019	
-48.610031	44.671112	
-48.590515	45.224457	
-48.732391	44.754944	
-48.851868	42.948792	
-48.479797	43.960449	
-47.892349	43.283051	
-47.839966	43.675354	
-48.004333	44.497650	
-46.952728	44.002289	
-46.711609	42.568542	
-46.446320	42.820923	
-46.422638	43.252350	
-46.604614	42.738495	
-46.478592	43.596802	
-46.244385	43.478790	
-45.805939	44.178131	
-45.419296	43.868591	
-45.747147	44.157135	
-46.281830	44.910339	
-46.605820	43.723633	
-47.304749	43.535339	
-48.021881	43.368561	
-48.357697	43.960449	
-48.203964	44.989532	
-48.242462	45.355591	
-47.919312	46.995575	
-48.269516	47.026154	
-47.736145	46.524170	
-47.456482	46.935944	
-47.352158	47.513092	
-47.441544	46.837738	
-47.299744	47.025482	
-47.012436	46.889038	
-47.242172	47.853790	
-47.051193	49.140900	
-47.491272	49.327240	
-47.355957	50.050323	
-46.826996	48.669464	
-47.478363	48.513428	
-47.615295	48.650757	
-47.351837	48.880280	
-47.875549	48.428009	
-48.019714	48.782135	
-48.340118	48.207275	
-48.295700	47.787720	
-48.302399	46.936646	
-47.216644	48.194427	
-47.085449	48.026062	
-46.291443	48.372742	
-45.503174	49.655426	
-45.706390	51.697174	
-46.530807	52.229462	
-47.013229	51.585510	
-47.461594	48.091461	
-47.346024	47.044800	
-47.747589	46.231415	
-48.319107	43.366028	
-47.445587	44.246033	
-46.507553	42.876556	
-45.631165	45.792755	
-44.347443	48.222076	
-45.110474	50.536194	
-44.988541	50.658112	
-45.181824	50.654175	
-46.019104	48.798187	
-47.055450	44.998718	
-47.822357	44.190918	
-49.375259	44.128418	
-50.957977	45.745178	
-50.806763	45.923553	
-50.373260	46.428253	
-48.954422	46.574280	
-48.422668	46.356049	
-47.932434	45.814026	
-47.486694	44.827545	
-47.304779	45.175537	
-46.982346	46.528748	
-47.015549	48.697388	
-47.563614	51.141052	
-47.340988	49.955109	
-47.051910	49.024109	
-47.010925	49.342804	
-46.554733	50.959595	
-46.649231	49.251160	
-46.434250	48.847534	
-46.344864	48.795868	
-46.291245	48.533539	
-46.129517	48.432739	
-46.371918	48.212982	
-46.680222	45.851746	
-47.350632	47.072632	
-48.011337	45.938324	
-47.901932	46.441986	
-47.792618	46.903870	
-47.877243	45.678070	
-48.070923	45.588806	
-48.328918	46.838440	
-48.299530	47.708252	
-47.720169	46.710266	
-48.044022	47.034576	
-47.986389	46.940613	
-47.987625	45.994232	
-48.391251	45.177032	
-48.036331	43.591583	
-47.720673	43.717712	
-47.145538	43.415100	
-46.865967	43.826691	
-46.411697	43.033234	
-46.031876	44.200134	
-46.487457	42.579010	
-46.269135	42.806549	
-46.741577	42.391602	
-47.635666	42.925446	
-47.495651	43.165131	
-47.638046	43.882111	
-47.355621	43.419373	
-47.146378	44.725586	
-47.080460	44.415924	
-47.230774	46.083679	
-47.289734	44.913300	
-47.158844	45.768677	
-47.381714	45.460510	
-47.436050	44.739960	
-47.101654	44.684967	
-47.875732	46.580872	
-47.869705	47.433899	
-47.746063	47.795654	
-48.210098	47.615295	
-47.801590	46.710266	
-47.985077	46.078003	
-47.786926	46.734192	
-47.984573	47.384521	
-48.253052	47.293732	
-48.026550	48.327209	
-48.205734	48.144928	
-47.985870	48.245850	
-47.385513	48.044128	
-46.531601	48.923187	
-46.949219	48.791718	
-48.262985	47.840149	
-49.519806	48.015594	
-50.115051	47.681488	
-51.225250	48.775452	
-49.994888	49.235321	
-48.555237	48.869843	
-47.483047	49.245636	
-46.886337	47.939026	
-46.543655	46.493073	
-46.584396	46.533813	
-46.590546	47.310455	
-46.768494	47.086670	
-47.204666	46.667786	
-47.887360	46.180725	
-47.941727	44.067932	
-48.278351	43.920990	
-48.205673	42.692413	
-47.667023	42.351471	
-47.190674	42.966827	
-46.929642	42.292175	
-46.684158	41.347229	
-46.994476	41.083984	
-46.219025	40.005981	
-45.980103	40.946167	
-44.976318	40.789490	
-45.433441	40.838379	
-46.558228	42.602386	
-48.599182	44.329926	
-49.839935	47.563354	
-51.733459	53.566467	
-51.319275	56.322632	
-50.334396	56.496826	
-50.267075	54.527283	
-51.055130	53.939697	
-51.150375	52.833099	
-51.292953	53.557587	
-50.503464	53.267792	
-50.126282	53.979553	
-51.070572	53.816528	
-50.841309	52.598053	
-51.557632	51.123932	
-50.822113	50.949310	
-50.453491	50.854797	
-50.671219	51.204559	
-50.461655	51.600525	
-51.062073	54.753174	
-50.845779	55.342987	
-50.639389	56.545288	
-50.229248	56.339935	
-50.321884	55.726624	
-50.161606	54.371582	
-49.575027	52.333069	
-49.715881	52.839996	
-49.889984	52.112976	
-50.078659	50.186981	
-50.081497	48.916931	
-50.023682	49.228424	
-49.476181	49.407593	
-49.663925	50.544312	
-50.097824	51.817810	
-50.036972	50.136902	
-50.406158	50.443604	
-50.046890	51.783508	
-50.900879	52.383942	
-51.057129	52.699310	
-51.757065	53.017487	
-52.215332	54.047516	
-51.414017	54.881927	
-50.545364	53.129120	
-50.726410	53.921387	
-50.678467	52.562866	
-51.028397	52.914398	
-51.767471	54.085846	
-51.575333	54.992737	
-51.149155	55.085449	
-51.468903	54.674225	
-51.289917	51.629883	
-51.562759	52.162415	
-51.431213	51.694702	
-52.097198	50.983032	
-52.505737	51.196014	
-52.772110	51.879425	
-52.005524	52.315918	
-52.128143	53.674316	
-51.059845	52.713043	
-50.643738	53.008789	
-49.602570	52.117279	
